Time (S)	CHA (V)	CH1 (V)
0.000	0.251	4.558
0.026	0.251	4.672
0.050	0.251	4.705
0.075	0.250	4.759
0.101	0.251	4.864
0.125	0.251	4.900
0.151	0.251	4.959
0.175	0.251	5.022
0.200	0.251	5.095
0.225	0.251	5.174
0.250	0.251	5.162
0.275	0.250	5.205
0.301	0.252	5.285
0.325	0.251	5.347
0.350	0.251	5.405
0.375	0.251	5.447
0.400	0.251	5.457
0.425	0.251	5.529
0.452	0.251	5.570
0.476	0.251	5.598
0.500	0.252	5.664
0.526	0.251	5.735
0.550	0.251	5.746
0.575	0.252	5.738
0.600	0.251	5.783
0.625	0.251	5.854
0.651	0.252	5.872
0.675	0.251	5.925
0.700	0.251	5.917
0.725	0.251	5.990
0.750	0.251	6.002
0.775	0.251	6.076
0.800	0.251	6.105
0.825	0.251	6.146
0.851	0.251	6.186
0.875	0.251	6.211
0.901	0.251	6.220
0.925	0.251	6.228
0.950	0.251	6.215
0.976	0.251	6.262
1.000	0.252	6.259
1.026	0.251	6.290
1.051	0.251	6.309
1.075	0.251	6.339
1.101	0.251	6.347
1.125	0.251	6.403
1.151	0.251	6.399
1.175	0.251	6.436
1.200	0.251	6.466
1.226	0.251	6.488
1.250	0.251	6.498
1.275	0.251	6.521
1.300	0.251	6.524
1.325	0.251	6.554
1.350	0.251	6.564
1.375	0.251	6.587
1.401	0.251	6.589
1.425	0.251	6.617
1.450	0.251	6.641
1.477	0.251	6.721
1.500	0.251	6.721
1.525	0.251	6.748
1.550	0.251	6.778
1.575	0.251	6.808
1.600	0.251	6.800
1.625	0.251	6.813
1.650	0.251	6.817
1.675	0.251	6.829
1.701	0.251	6.804
1.725	0.251	6.855
1.750	0.251	6.853
1.776	0.251	6.871
1.800	0.251	6.873
1.825	0.251	6.879
1.851	0.251	6.873
1.875	0.251	6.912
1.900	0.001	6.910
1.925	0.001	6.858
1.951	0.001	6.785
1.976	0.001	6.721
2.000	0.001	6.650
2.025	0.001	6.572
2.050	0.001	6.479
2.075	0.001	6.435
2.101	0.001	6.338
2.125	0.001	6.279
2.151	0.001	6.203
2.175	0.001	6.113
2.200	0.001	6.000
2.225	0.001	5.949
2.250	0.001	5.876
2.275	0.001	5.824
2.301	0.001	5.737
2.325	0.001	5.664
2.350	0.001	5.600
2.375	0.001	5.587
2.400	0.001	5.503
2.425	0.001	5.393
2.452	0.001	5.332
2.475	0.001	5.276
2.500	0.001	5.198
2.525	0.001	5.168
2.552	0.001	5.056
2.575	0.001	4.997
2.601	0.001	4.895
2.625	0.001	4.871
2.650	0.002	4.782
2.675	0.001	4.722
2.700	0.001	4.619
2.725	0.001	4.624
2.750	0.001	4.501
2.775	0.001	4.456
2.801	0.001	4.391
2.825	0.001	4.312
2.850	0.001	4.246
2.875	0.001	4.245
2.900	0.001	4.122
2.925	0.001	4.066
2.950	0.001	4.044
2.975	0.001	3.964
3.001	0.001	3.848
3.025	0.001	3.808
3.050	0.001	3.770
3.075	0.001	3.749
3.100	0.000	3.647
3.125	0.001	3.583
3.151	0.001	3.494
3.175	0.001	3.448
3.202	0.001	3.377
3.225	0.001	3.324
3.250	0.001	3.270
3.275	0.001	3.208
3.301	0.001	3.168
3.325	0.001	3.099
3.351	0.001	3.033
3.375	0.001	2.975
3.400	0.001	2.931
3.426	0.001	2.905
3.450	0.001	2.855
3.475	0.001	2.809
3.500	0.001	2.756
3.525	0.001	2.703
3.550	0.001	2.600
3.575	0.001	2.551
3.602	0.001	2.506
3.625	0.001	2.474
3.651	0.001	2.401
3.675	0.002	2.331
3.701	0.002	2.288
3.725	0.001	2.258
3.751	0.001	2.173
3.775	0.001	2.135
3.801	0.001	2.099
3.825	0.001	2.011
3.851	0.001	1.968
3.875	0.001	1.905
3.901	0.001	1.834
3.926	0.001	1.814
3.950	0.001	1.729
3.975	0.001	1.719
4.001	0.001	1.632
4.025	0.001	1.593
4.050	0.001	1.530
4.075	0.001	1.510
4.101	0.001	1.405
4.125	0.001	1.387
4.150	0.001	1.328
4.175	0.001	1.270
4.201	0.001	1.234
4.227	0.001	1.176
4.251	0.001	1.112
4.275	0.001	1.075
4.300	0.001	1.022
4.326	0.001	0.986
4.350	0.001	0.936
4.375	0.001	0.880
4.400	0.251	0.823
4.425	0.251	1.123
4.450	0.251	1.424
4.475	0.251	1.694
4.502	0.251	1.930
4.526	0.251	2.191
4.550	0.251	2.335
4.575	0.251	2.532
4.601	0.251	2.715
4.625	0.251	2.907
4.650	0.251	3.057
4.676	0.251	3.237
4.700	0.251	3.343
4.725	0.251	3.494
4.750	0.251	3.588
4.775	0.251	3.707
4.800	0.251	3.790
4.825	0.251	3.884
4.851	0.251	4.049
4.875	0.251	4.118
4.901	0.251	4.199
4.925	0.251	4.292
4.950	0.251	4.379
4.975	0.251	4.456
5.000	0.251	4.543
5.025	0.251	4.617
5.050	0.251	4.654
5.075	0.251	4.796
5.100	0.251	4.771
5.125	0.251	4.898
5.151	0.251	4.918
5.175	0.251	5.059
5.201	0.251	5.086
5.225	0.251	5.126
5.250	0.250	5.185
5.275	0.251	5.231
5.300	0.251	5.335
5.326	0.251	5.381
5.350	0.251	5.371
5.375	0.251	5.452
5.401	0.251	5.480
5.425	0.251	5.518
5.450	0.251	5.599
5.475	0.251	5.663
5.501	0.251	5.660
5.525	0.251	5.666
5.550	0.251	5.732
5.575	0.251	5.766
5.602	0.251	5.806
5.625	0.252	5.820
5.651	0.251	5.863
5.675	0.251	5.931
5.700	0.252	5.986
5.725	0.251	6.024
5.750	0.251	6.030
5.775	0.251	6.058
5.800	0.250	6.035
5.826	0.251	6.089
5.850	0.251	6.115
5.875	0.251	6.148
5.902	0.252	6.168
5.925	0.251	6.205
5.950	0.251	6.240
5.975	0.251	6.270
6.000	0.251	6.301
6.025	0.251	6.324
6.050	0.251	6.351
6.075	0.251	6.374
6.100	0.251	6.406
6.125	0.251	6.423
6.151	0.251	6.440
6.175	0.251	6.466
6.200	0.251	6.486
6.225	0.251	6.522
6.250	0.251	6.534
6.275	0.251	6.551
6.300	0.251	6.563
6.326	0.251	6.579
6.350	0.251	6.601
6.375	0.251	6.608
6.401	0.251	6.620
6.425	0.251	6.629
6.450	0.251	6.647
6.475	0.251	6.664
6.501	0.251	6.664
6.525	0.251	6.702
6.550	0.251	6.712
6.575	0.251	6.735
6.600	0.251	6.754
6.625	0.251	6.802
6.650	0.251	6.831
6.675	0.251	6.854
6.700	0.252	6.859
6.725	0.252	6.882
6.751	0.251	6.871
6.775	0.251	6.884
6.801	0.251	6.871
6.826	0.251	6.916
6.850	0.251	6.937
6.875	0.251	6.929
6.900	0.001	6.918
6.926	0.001	6.837
6.950	0.001	6.766
6.975	0.001	6.685
7.001	0.001	6.637
7.025	0.001	6.543
7.050	0.001	6.471
7.075	0.001	6.395
7.100	0.001	6.314
7.125	0.001	6.239
7.152	0.001	6.167
7.175	0.001	6.102
7.200	0.001	6.044
7.225	0.001	5.966
7.250	0.001	5.918
7.275	0.001	5.847
7.301	0.001	5.773
7.326	0.001	5.708
7.350	0.001	5.671
7.376	0.001	5.603
7.400	0.001	5.484
7.426	0.001	5.416
7.450	0.001	5.377
7.476	0.001	5.287
7.500	0.001	5.272
7.525	0.001	5.176
7.551	0.001	5.076
7.575	0.002	5.024
7.601	0.001	4.951
7.625	0.001	4.933
7.650	0.001	4.832
7.675	0.001	4.759
7.700	0.001	4.710
7.725	0.002	4.686
7.751	0.001	4.573
7.775	0.001	4.495
7.800	0.001	4.491
7.825	0.001	4.358
7.850	0.001	4.305
7.875	0.001	4.283
7.900	0.001	4.166
7.926	0.001	4.116
7.950	0.001	4.099
7.975	0.001	3.993
8.001	0.001	3.885
8.025	0.001	3.869
8.051	0.001	3.801
8.075	0.001	3.765
8.100	0.001	3.699
8.125	0.001	3.603
8.150	0.001	3.534
8.177	0.001	3.454
8.201	0.001	3.418
8.225	0.001	3.344
8.251	0.001	3.335
8.275	0.001	3.245
8.300	0.001	3.215
8.325	0.001	3.108
8.350	0.001	3.090
8.375	0.001	3.001
8.400	0.001	2.962
8.425	0.001	2.888
8.451	0.001	2.857
8.475	0.001	2.819
8.501	0.002	2.757
8.526	0.001	2.726
8.550	0.001	2.659
8.575	0.001	2.571
8.601	0.001	2.520
8.626	0.001	2.484
8.650	0.001	2.472
8.675	0.001	2.355
8.701	0.001	2.319
8.725	0.001	2.281
8.751	0.001	2.223
8.775	0.002	2.150
8.800	0.001	2.114
8.825	0.001	2.051
8.850	0.001	2.006
8.875	0.001	1.966
8.901	0.001	1.899
8.925	0.001	1.851
8.950	0.001	1.836
8.975	0.001	1.734
9.000	0.001	1.715
9.025	0.001	1.637
9.050	0.001	1.640
9.075	0.001	1.542
9.100	0.001	1.513
9.125	0.001	1.444
9.151	0.001	1.422
9.175	0.001	1.350
9.201	0.001	1.323
9.225	0.001	1.267
9.251	0.001	1.212
9.275	0.001	1.173
9.301	0.001	1.132
9.325	0.001	1.071
9.350	0.001	1.053
9.375	0.001	0.978
9.401	0.251	1.023
9.425	0.251	1.320
9.450	0.251	1.619
9.476	0.251	1.884
9.500	0.251	2.089
9.525	0.251	2.309
9.550	0.251	2.522
9.575	0.251	2.648
9.600	0.251	2.832
9.626	0.251	2.984
9.650	0.251	3.145
9.675	0.251	3.270
9.700	0.251	3.426
9.725	0.251	3.526
9.750	0.251	3.636
9.775	0.251	3.742
9.801	0.251	3.893
9.825	0.252	3.982
9.850	0.251	4.086
9.876	0.251	4.130
9.900	0.251	4.293
9.925	0.251	4.327
9.951	0.251	4.393
9.975	0.251	4.514
10.000	0.251	4.573
10.025	0.251	4.618
10.051	0.251	4.739
10.075	0.251	4.773
10.100	0.251	4.865
10.125	0.251	4.894
10.150	0.252	5.006
10.175	0.251	5.038
10.200	0.251	5.105
10.226	0.251	5.149
10.250	0.251	5.212
10.275	0.251	5.291
10.301	0.251	5.350
10.326	0.251	5.322
10.350	0.251	5.416
10.375	0.251	5.440
10.400	0.251	5.520
10.426	0.251	5.549
10.450	0.251	5.653
10.475	0.251	5.620
10.501	0.252	5.644
10.525	0.251	5.706
10.550	0.251	5.779
10.575	0.251	5.790
10.601	0.251	5.834
10.625	0.251	5.870
10.650	0.251	5.935
10.675	0.251	5.963
10.701	0.251	5.996
10.725	0.251	5.986
10.752	0.251	6.050
10.775	0.251	6.030
10.801	0.251	6.075
10.825	0.251	6.094
10.850	0.251	6.146
10.875	0.251	6.153
10.900	0.251	6.236
10.926	0.251	6.216
10.950	0.251	6.280
10.975	0.251	6.269
11.001	0.251	6.320
11.025	0.251	6.305
11.050	0.251	6.347
11.075	0.251	6.361
11.100	0.251	6.394
11.125	0.251	6.390
11.150	0.251	6.460
11.175	0.251	6.438
11.200	0.251	6.482
11.225	0.251	6.501
11.251	0.251	6.545
11.275	0.251	6.524
11.301	0.251	6.601
11.325	0.251	6.598
11.351	0.251	6.632
11.375	0.251	6.633
11.400	0.251	6.672
11.425	0.251	6.678
11.450	0.251	6.704
11.475	0.252	6.672
11.501	0.251	6.706
11.525	0.251	6.694
11.550	0.251	6.746
11.575	0.251	6.725
11.601	0.251	6.775
11.625	0.251	6.771
11.651	0.252	6.847
11.675	0.251	6.829
11.700	0.251	6.881
11.725	0.252	6.883
11.750	0.251	6.915
11.775	0.251	6.893
11.801	0.251	6.891
11.825	0.252	6.879
11.851	0.251	6.936
11.875	0.251	6.933
11.901	0.001	6.913
11.925	0.001	6.833
11.950	0.001	6.777
11.975	0.001	6.688
12.000	0.001	6.643
12.026	0.001	6.545
12.050	0.001	6.495
12.075	0.001	6.398
12.101	0.001	6.357
12.125	0.001	6.245
12.150	0.001	6.228
12.175	0.001	6.109
12.201	0.001	6.075
12.225	0.001	5.964
12.250	0.001	5.952
12.275	0.001	5.853
12.300	0.001	5.808
12.325	0.001	5.710
12.351	0.001	5.686
12.376	0.001	5.580
12.401	0.001	5.489
12.425	0.001	5.418
12.451	0.001	5.373
12.475	0.001	5.280
12.500	0.001	5.291
12.525	0.001	5.174
12.552	0.001	5.093
12.575	0.001	5.017
12.601	0.001	4.979
12.625	0.001	4.894
12.650	0.001	4.827
12.675	0.001	4.733
12.701	0.001	4.696
12.725	0.001	4.656
12.750	0.001	4.594
12.775	0.001	4.477
12.800	0.001	4.485
12.825	0.001	4.374
12.850	0.001	4.325
12.875	0.001	4.279
12.900	0.001	4.199
12.926	0.001	4.107
12.950	0.001	4.125
12.975	0.001	4.011
13.001	0.001	3.939
13.025	0.001	3.890
13.051	0.001	3.842
13.075	0.001	3.765
13.101	0.001	3.707
13.125	0.001	3.617
13.150	0.001	3.567
13.176	0.001	3.479
13.200	0.001	3.473
13.225	0.001	3.396
13.250	0.001	3.365
13.275	0.001	3.289
13.301	0.001	3.270
13.325	0.001	3.182
13.350	0.001	3.122
13.375	0.001	3.054
13.400	0.001	2.995
13.425	0.001	2.901
13.450	0.001	2.879
13.475	0.001	2.805
13.500	0.001	2.778
13.525	0.001	2.714
13.551	0.001	2.680
13.575	0.001	2.606
13.601	0.001	2.521
13.625	0.001	2.476
13.650	0.001	2.448
13.675	0.001	2.379
13.700	0.001	2.329
13.725	0.001	2.223
13.750	0.001	2.236
13.775	0.001	2.150
13.801	0.001	2.098
13.825	0.001	2.056
13.851	0.001	2.010
13.875	0.001	1.951
13.901	0.002	1.927
13.925	0.001	1.830
13.950	0.001	1.839
13.975	0.001	1.718
14.000	0.001	1.718
14.025	0.001	1.630
14.050	0.001	1.610
14.075	0.001	1.532
14.100	0.002	1.519
14.125	0.001	1.426
14.150	0.001	1.431
14.175	0.002	1.338
14.200	0.001	1.315
14.225	0.001	1.249
14.250	0.001	1.209
14.275	0.001	1.168
14.301	0.001	1.120
14.325	0.001	1.052
14.351	0.001	1.028
14.375	0.001	0.960
14.400	0.251	1.020
14.425	0.251	1.297
14.450	0.251	1.588
14.475	0.252	1.857
14.501	0.251	2.085
14.527	0.251	2.311
14.550	0.251	2.520
14.575	0.251	2.680
14.600	0.251	2.829
14.625	0.251	2.972
14.650	0.250	3.131
14.675	0.251	3.250
14.700	0.251	3.398
14.725	0.251	3.519
14.750	0.251	3.647
14.776	0.251	3.802
14.801	0.252	3.907
14.825	0.251	3.986
14.850	0.251	4.070
14.875	0.252	4.168
14.900	0.251	4.308
14.925	0.252	4.341
14.951	0.251	4.449
14.976	0.251	4.513
15.000	0.251	4.558
15.025	0.251	4.667
15.051	0.251	4.723
15.076	0.251	4.810
15.100	0.251	4.855
15.125	0.251	4.932
15.150	0.251	4.976
15.175	0.251	5.069
15.200	0.251	5.065
15.225	0.251	5.153
15.251	0.251	5.208
15.275	0.251	5.261
15.300	0.251	5.343
15.325	0.251	5.331
15.350	0.251	5.399
15.375	0.251	5.453
15.402	0.251	5.518
15.425	0.252	5.529
15.451	0.251	5.634
15.475	0.251	5.669
15.501	0.251	5.678
15.525	0.251	5.681
15.551	0.251	5.761
15.575	0.251	5.773
15.601	0.252	5.842
15.626	0.251	5.838
15.650	0.251	5.912
15.675	0.251	5.944
15.700	0.251	6.015
15.725	0.251	6.017
15.750	0.251	6.050
15.775	0.251	6.048
15.800	0.251	6.071
15.825	0.251	6.099
15.851	0.251	6.161
15.877	0.251	6.165
15.901	0.251	6.230
15.925	0.251	6.221
15.950	0.251	6.280
15.976	0.251	6.277
16.000	0.251	6.319
16.025	0.251	6.328
16.051	0.251	6.376
16.075	0.251	6.389
16.100	0.251	6.412
16.125	0.251	6.414
16.151	0.251	6.463
16.175	0.251	6.460
16.200	0.251	6.512
16.225	0.251	6.512
16.251	0.251	6.554
16.275	0.251	6.551
16.301	0.251	6.583
16.326	0.251	6.572
16.351	0.251	6.617
16.375	0.251	6.627
16.400	0.251	6.648
16.426	0.251	6.648
16.450	0.251	6.693
16.477	0.251	6.683
16.500	0.251	6.706
16.525	0.251	6.720
16.550	0.251	6.723
16.576	0.251	6.785
16.600	0.251	6.830
16.625	0.251	6.828
16.650	0.252	6.875
16.675	0.251	6.880
16.701	0.251	6.890
16.726	0.252	6.856
16.751	0.251	6.876
16.775	0.251	6.869
16.801	0.251	6.907
16.825	0.251	6.906
16.850	0.251	6.916
16.875	0.251	6.894
16.900	0.001	6.939
16.925	0.001	6.856
16.950	0.001	6.788
16.977	0.001	6.743
17.001	0.001	6.685
17.025	0.001	6.601
17.050	0.001	6.537
17.075	0.001	6.462
17.100	0.001	6.393
17.125	0.001	6.311
17.151	0.001	6.254
17.175	0.001	6.164
17.201	0.001	6.103
17.225	0.001	5.992
17.251	0.001	5.923
17.275	0.001	5.858
17.300	0.001	5.817
17.325	0.001	5.730
17.350	0.001	5.685
17.375	0.001	5.612
17.400	0.001	5.579
17.425	0.001	5.447
17.450	0.001	5.401
17.475	0.001	5.297
17.500	0.001	5.267
17.525	0.001	5.184
17.551	0.001	5.145
17.576	0.001	5.022
17.600	0.001	4.958
17.625	0.001	4.896
17.650	0.001	4.884
17.675	0.001	4.761
17.700	0.001	4.688
17.725	0.001	4.652
17.751	0.001	4.621
17.775	0.001	4.523
17.800	0.001	4.446
17.825	0.001	4.440
17.850	0.001	4.345
17.877	0.001	4.237
17.900	0.001	4.256
17.925	0.002	4.146
17.950	0.001	4.062
17.975	0.001	4.028
18.000	0.001	3.963
18.025	0.001	3.916
18.051	0.001	3.838
18.076	0.001	3.735
18.101	0.001	3.734
18.126	0.001	3.652
18.150	0.001	3.634
18.175	0.001	3.536
18.200	0.001	3.504
18.225	0.001	3.426
18.251	0.001	3.359
18.275	0.001	3.295
18.300	0.001	3.241
18.325	0.001	3.172
18.350	0.001	3.123
18.375	0.001	3.083
18.400	0.001	3.014
18.425	0.001	2.976
18.450	0.001	2.935
18.475	0.001	2.881
18.500	0.001	2.841
18.525	0.001	2.726
18.551	0.001	2.678
18.576	0.001	2.608
18.601	0.001	2.586
18.625	0.001	2.564
18.650	0.001	2.472
18.675	0.001	2.402
18.700	0.001	2.348
18.725	0.001	2.317
18.751	0.001	2.256
18.776	0.001	2.169
18.800	0.001	2.148
18.825	0.001	2.082
18.850	0.001	2.018
18.875	0.001	1.974
18.901	0.001	1.918
18.925	0.001	1.872
18.950	0.001	1.805
18.975	0.001	1.759
19.000	0.001	1.722
19.025	0.001	1.634
19.050	0.001	1.598
19.075	0.001	1.536
19.100	0.001	1.506
19.125	0.001	1.440
19.151	0.001	1.387
19.175	0.001	1.338
19.201	0.001	1.283
19.225	0.001	1.250
19.251	0.001	1.179
19.275	0.001	1.123
19.301	0.001	1.098
19.325	0.001	1.032
19.350	0.001	0.987
19.375	0.001	0.961
19.401	0.251	0.906
19.425	0.251	1.147
19.450	0.251	1.467
19.475	0.251	1.716
19.500	0.251	2.009
19.525	0.251	2.173
19.551	0.251	2.382
19.575	0.251	2.596
19.600	0.251	2.759
19.625	0.252	2.932
19.650	0.251	3.079
19.675	0.251	3.218
19.700	0.251	3.354
19.725	0.251	3.483
19.750	0.251	3.613
19.775	0.251	3.737
19.800	0.251	3.812
19.826	0.251	3.905
19.852	0.251	3.999
19.876	0.251	4.116
19.901	0.251	4.238
19.925	0.251	4.274
19.950	0.251	4.362
19.975	0.251	4.479
20.000	0.251	4.512
